CTI1   

DESCRIPTOR "Argyll Calibration Target chart information 1"
ORIGINATOR "Argyll targen"
CREATED "Wed May 01 13:47:02 2019"
SINGLE_DIM_STEPS "5"
COMP_GREY_STEPS "52"
MULTI_DIM_STEPS "5"
COLOR_REP "RGB"
TARGET_INSTRUMENT "X-Rite i1 DisplayPro, ColorMunki Display"
DISPLAY_TYPE_REFRESH "NO"
DISPLAY_TYPE_BASE_ID "1"
INSTRUMENT_TYPE_SPECTRAL "NO"
NORMALIZED_TO_Y_100 "YES"
VIDEO_LUT_CALIBRATION_POSSIBLE "YES"
OBSERVER "1931_2"
USE_BLACK_POINT_COMPENSATION "NO"
BLACK_POINT_CORRECTION "0.0"
HIRES_B2A "YES"
HIRES_B2A_SIZE "-1"
SMOOTH_B2A "YES"
PATCH_SEQUENCE "OPTIMIZE_DISPLAY_RESPONSE_DELAY"
3DLUT_HDR_MAXMLL_ALT_CLIP "1"
3DLUT_HDR_SAT "0.5"
3DLUT_HDR_PEAK_LUMINANCE "480.0"
3DLUT_HDR_MAXMLL "10000.0"
3DLUT_GAMUT_MAPPING_MODE "G"
3DLUT_HDR_MINMLL "0.0"
3DLUT_SOURCE_PROFILE "ref/Rec709.icm"
3DLUT_RENDERING_INTENT "aw"
3DLUT_HDR_DISPLAY "0"
3DLUT_FORMAT "cube"
3DLUT_HDR_AMBIENT_LUMINANCE "5.0"
3DLUT_APPLY_CAL "1"
3DLUT_SIZE "65"
3DLUT_GAMMA "-2.4"
3DLUT_INPUT_ENCODING "n"
3DLUT_OUTPUT_ENCODING "n"
3DLUT_INPUT_BITDEPTH "10"
3DLUT_TRC "bt1886"
3DLUT_OUTPUT_BITDEPTH "12"
3DLUT_DEGREE_OF_BLACK_OUTPUT_OFFSET "0.0"
3DLUT_HDR_HUE "0.5"
3DLUT_CONTENT_COLORSPACE_WHITE_X "0.3127"
3DLUT_CONTENT_COLORSPACE_WHITE_Y "0.329"
3DLUT_CONTENT_COLORSPACE_RED_X "0.68"
3DLUT_CONTENT_COLORSPACE_RED_Y "0.32"
3DLUT_CONTENT_COLORSPACE_GREEN_X "0.265"
3DLUT_CONTENT_COLORSPACE_GREEN_Y "0.69"
3DLUT_CONTENT_COLORSPACE_BLUE_X "0.15"
3DLUT_CONTENT_COLORSPACE_BLUE_Y "0.06"

NUMBER_OF_FIELDS 7
BEGIN_DATA_FORMAT
SAMPLE_ID RGB_R RGB_G RGB_B XYZ_X XYZ_Y XYZ_Z
END_DATA_FORMAT

NUMBER_OF_SETS 175
BEGIN_DATA
1 100.0000 100.0000 100.0000 94.66789 100.0000 107.6168
2 100.0000 100.0000 75.00000 86.37707 96.86022 64.14594
3 100.0000 100.0000 100.0000 94.66789 100.0000 107.6168
4 100.0000 100.0000 100.0000 94.66789 100.0000 107.6168
5 0.000000 0.000000 0.000000 0.100375 0.101864 0.180740
6 25.00000 0.000000 0.000000 1.890334 1.050806 0.236920
7 50.00000 0.000000 0.000000 8.771442 4.678638 0.394724
8 75.00000 0.000000 0.000000 21.12781 11.18974 0.699531
9 100.0000 0.000000 0.000000 40.39473 21.35894 1.207903
10 100.0000 0.000000 25.00000 41.38965 21.75602 5.924258
11 100.0000 25.00000 25.00000 42.99130 25.00025 6.418856
12 100.0000 50.00000 25.00000 49.31453 37.30293 8.636339
13 100.0000 75.00000 25.00000 60.49172 59.19217 12.61225
14 0.000000 0.000000 25.00000 0.900206 0.414291 4.433719
15 25.00000 0.000000 25.00000 2.721559 1.367449 4.625884
16 75.00000 0.000000 100.0000 38.61079 17.78416 94.30020
17 100.0000 0.000000 100.0000 57.91816 27.99191 94.91062
18 1.960800 1.960800 1.960800 0.149500 0.156723 0.220276
19 3.921600 3.921600 3.921600 0.230109 0.242760 0.307918
20 5.882400 5.882400 5.882400 0.316137 0.332544 0.415402
21 7.843100 7.843100 7.843100 0.464976 0.488542 0.597313
22 9.803900 9.803900 9.803900 0.631379 0.659144 0.759361
23 11.76500 11.76500 11.76500 0.930536 0.973913 1.109784
24 13.72600 13.72600 13.72600 1.269808 1.330987 1.496596
25 15.68600 15.68600 15.68600 1.625450 1.703158 1.916106
26 17.64700 17.64700 17.64700 2.163203 2.272579 2.514634
27 19.60800 19.60800 19.60800 2.653754 2.792660 3.094568
28 21.56900 21.56900 21.56900 3.329708 3.498305 3.890609
29 23.52900 23.52900 23.52900 3.940744 4.137962 4.610071
30 27.45100 27.45100 27.45100 5.462224 5.752591 6.321868
31 29.41200 29.41200 29.41200 6.481090 6.831068 7.532512
32 31.37300 31.37300 31.37300 7.391464 7.782310 8.591518
33 33.33300 33.33300 33.33300 8.523174 8.991021 9.689361
34 35.29400 35.29400 35.29400 9.656839 10.18533 11.02624
35 37.25500 37.25500 37.25500 10.78718 11.37952 12.34737
36 39.21600 39.21600 39.21600 12.23651 12.92091 14.06522
37 41.17600 41.17600 41.17600 13.52704 14.28871 15.58803
38 43.13700 43.13700 43.13700 14.94422 15.79108 17.23845
39 45.09800 45.09800 45.09800 16.55165 17.38727 19.05155
40 47.05900 47.05900 47.05900 18.18216 19.08154 20.93742
41 49.02000 49.02000 49.02000 19.83098 20.87372 22.87359
42 50.98000 50.98000 50.98000 21.53094 22.70060 24.61674
43 52.94100 52.94100 52.94100 23.43208 24.66457 26.83979
44 54.90200 54.90200 54.90200 25.35126 26.66708 29.06362
45 56.86300 56.86300 56.86300 27.32679 28.74735 31.38466
46 58.82400 58.82400 58.82400 29.54492 31.05844 33.99496
47 60.78400 60.78400 60.78400 31.71505 33.38934 36.51117
48 62.74500 62.74500 62.74500 33.99704 35.75700 39.12142
49 64.70600 64.70600 64.70600 36.27025 38.27607 41.35201
50 66.66700 66.66700 66.66700 38.75698 40.58635 44.53157
51 68.62700 68.62700 68.62700 41.35596 43.30114 47.52907
52 70.58800 70.58800 70.58800 44.07515 46.15026 50.62372
53 72.54900 72.54900 72.54900 46.35752 48.88567 52.95786
54 76.47100 76.47100 76.47100 52.17143 54.97095 59.72657
55 78.43100 78.43100 78.43100 55.40440 58.37998 63.49855
56 80.39200 80.39200 80.39200 58.56078 61.71056 67.07762
57 82.35300 82.35300 82.35300 61.79375 65.11959 70.84960
58 84.31400 84.31400 84.31400 65.13420 68.64109 74.52579
59 86.27500 86.27500 86.27500 68.30413 72.11231 78.39823
60 88.23500 88.23500 88.23500 71.85190 75.90631 82.46254
61 90.19600 90.19600 90.19600 75.53501 79.76587 85.94705
62 92.15700 92.15700 92.15700 79.30733 83.75216 90.29984
63 94.11800 94.11800 94.11800 82.97261 87.37701 95.12495
64 96.07800 96.07800 96.07800 86.83310 91.56743 98.90425
65 98.03900 98.03900 98.03900 90.91511 95.86922 102.7767
66 25.00000 25.00000 0.000000 3.600298 4.322840 0.803454
67 50.00000 25.00000 0.000000 10.53453 7.975483 0.986159
68 75.00000 25.00000 0.000000 23.00040 14.56530 1.314829
69 100.0000 25.00000 0.000000 42.09335 24.65140 1.800615
70 100.0000 50.00000 0.000000 48.32887 36.85876 3.989945
71 50.00000 50.00000 0.000000 16.87708 20.26175 3.189481
72 75.00000 50.00000 0.000000 29.15002 26.72625 3.467773
73 25.00000 50.00000 0.000000 9.910890 16.59666 3.010744
74 25.00000 75.00000 0.000000 21.15208 38.52103 6.854470
75 50.00000 75.00000 0.000000 28.12052 42.18620 7.043871
76 75.00000 75.00000 0.000000 40.49199 48.68701 7.353148
77 100.0000 75.00000 0.000000 59.49958 58.74777 7.935282
78 25.00000 100.0000 0.000000 38.64686 72.94527 12.86414
79 50.00000 100.0000 0.000000 45.75934 76.66477 13.08230
80 75.00000 100.0000 0.000000 58.13873 83.16584 13.42901
81 100.0000 100.0000 0.000000 76.99989 93.13427 14.05563
82 100.0000 100.0000 25.00000 78.01500 93.55794 18.70836
83 50.00000 0.000000 25.00000 9.650962 5.017878 4.870848
84 50.00000 25.00000 50.00000 14.41672 9.518582 21.68658
85 0.000000 25.00000 0.000000 1.767333 3.349160 0.757530
86 0.000000 25.00000 25.00000 2.608065 3.728675 5.085446
87 25.49000 25.49000 25.49000 4.712428 4.965414 5.428065
88 50.00000 25.00000 25.00000 11.43300 8.362599 5.524838
89 75.00000 25.00000 25.00000 23.74155 14.86016 5.849253
90 0.000000 50.00000 0.000000 8.067683 15.65882 2.932325
91 0.000000 50.00000 25.00000 8.882884 16.00481 7.159448
92 25.00000 50.00000 25.00000 10.78483 16.98257 7.430957
93 50.00000 50.00000 25.00000 17.77589 20.74580 7.690973
94 75.00000 50.00000 25.00000 30.15160 27.24675 8.020314
95 0.000000 75.00000 0.000000 19.21006 37.48751 6.695455
96 0.000000 75.00000 25.00000 20.05173 37.87232 10.96315
97 25.00000 75.00000 25.00000 21.88734 38.79343 11.22300
98 50.00000 75.00000 25.00000 28.94381 42.51599 11.52656
99 75.00000 75.00000 25.00000 41.36172 49.15359 11.93451
100 0.000000 100.0000 0.000000 36.68468 71.97042 12.65805
101 0.000000 100.0000 25.00000 37.43094 72.16238 16.89751
102 25.00000 100.0000 25.00000 39.51845 73.33110 17.27325
103 50.00000 100.0000 25.00000 46.62927 77.10991 17.53180
104 75.00000 100.0000 25.00000 59.04012 83.55269 17.97895
105 0.000000 0.000000 50.00000 3.815921 1.517320 20.10679
106 25.00000 0.000000 50.00000 5.700357 2.494770 20.65894
107 50.00000 0.000000 50.00000 12.65250 6.163242 21.04792
108 75.00000 0.000000 50.00000 25.05691 12.70812 21.46059
109 100.0000 0.000000 50.00000 44.33828 22.85735 22.55127
110 100.0000 0.000000 75.00000 49.89442 24.94459 51.62704
111 100.0000 25.00000 75.00000 51.58578 28.30171 52.26814
112 75.00000 0.000000 25.00000 21.97587 11.51638 5.277850
113 75.00000 25.00000 50.00000 26.83214 16.05496 22.09867
114 100.0000 25.00000 50.00000 45.91327 26.09744 22.90305
115 25.00000 25.00000 50.00000 7.489031 5.876065 21.39416
116 25.00000 50.00000 50.00000 13.82316 18.24680 23.55016
117 75.00000 50.00000 50.00000 33.22240 28.45356 24.25386
118 100.0000 50.00000 50.00000 52.32100 38.53483 25.05900
119 100.0000 50.00000 75.00000 57.78814 40.66708 54.33184
120 25.00000 75.00000 50.00000 24.94652 40.07709 27.23194
121 50.00000 75.00000 50.00000 32.07374 43.91639 27.62127
122 75.00000 75.00000 50.00000 44.50552 50.42011 28.22419
123 100.0000 75.00000 50.00000 63.55229 60.46702 29.22235
124 100.0000 75.00000 75.00000 69.13415 62.69070 58.30217
125 25.00000 100.0000 50.00000 42.55533 74.54287 33.36297
126 50.00000 100.0000 50.00000 49.68139 78.26363 33.65190
127 75.00000 100.0000 50.00000 62.06465 84.78747 34.16072
128 100.0000 100.0000 50.00000 81.04902 94.74033 35.25386
129 25.00000 0.000000 75.00000 11.16739 4.574236 49.83389
130 50.00000 0.000000 75.00000 18.10850 8.235259 50.22292
131 75.00000 0.000000 75.00000 30.49389 14.75721 50.73162
132 75.00000 25.00000 75.00000 32.19264 18.09344 51.27545
133 75.00000 50.00000 100.0000 46.89921 33.88779 97.00619
134 25.00000 25.00000 75.00000 12.87278 7.938698 50.28226
135 25.00000 50.00000 100.0000 27.51119 23.62163 96.30022
136 0.000000 25.00000 50.00000 5.576612 4.880806 20.93873
137 0.000000 25.00000 75.00000 10.91667 6.936734 49.63531
138 0.000000 50.00000 75.00000 17.32121 19.35878 51.98341
139 25.00000 50.00000 75.00000 19.27388 20.36003 52.63051
140 50.00000 50.00000 75.00000 26.31827 24.10448 53.01914
141 75.00000 50.00000 75.00000 38.64086 30.58920 53.33591
142 74.51000 74.51000 74.51000 49.22184 51.88187 56.34191
143 0.000000 75.00000 75.00000 28.47877 41.26864 55.66680
144 25.00000 75.00000 75.00000 30.44150 42.21051 56.31150
145 50.00000 75.00000 75.00000 37.60427 46.12683 56.70234
146 0.000000 75.00000 50.00000 23.00961 39.08120 26.68080
147 0.000000 100.0000 50.00000 40.34979 73.29989 32.61904
148 0.000000 100.0000 75.00000 45.91466 75.60326 61.79862
149 25.00000 100.0000 75.00000 47.99992 76.64146 62.63539
150 50.00000 100.0000 75.00000 55.04518 80.35890 62.54155
151 75.00000 100.0000 75.00000 67.47866 86.82454 63.23934
152 75.00000 100.0000 100.0000 75.57095 90.02692 106.5264
153 25.00000 0.000000 100.0000 19.34363 7.627632 93.69098
154 50.00000 0.000000 100.0000 26.27736 11.30369 93.98441
155 0.000000 0.000000 75.00000 9.236906 3.581670 49.18642
156 0.000000 0.000000 100.0000 17.45086 6.635104 93.23478
157 0.000000 25.00000 100.0000 19.20644 10.08757 93.78080
158 25.00000 25.00000 100.0000 21.16963 11.10937 94.62085
159 50.00000 25.00000 100.0000 28.12583 14.75299 94.62355
160 75.00000 25.00000 100.0000 40.35754 21.23814 94.84692
161 100.0000 25.00000 100.0000 59.58070 31.35161 95.45659
162 100.0000 50.00000 100.0000 66.08040 43.98113 97.61631
163 50.00000 25.00000 75.00000 19.83177 11.56946 50.86208
164 50.00000 50.00000 100.0000 34.51231 27.38315 96.59418
165 0.000000 50.00000 50.00000 11.86971 17.24608 22.90311
166 0.000000 50.00000 100.0000 25.62285 22.62011 95.93956
167 0.000000 75.00000 100.0000 36.79160 44.62420 99.62593
168 25.00000 75.00000 100.0000 38.77810 45.62113 100.0792
169 50.00000 75.00000 100.0000 45.75514 49.26511 100.1776
170 75.00000 75.00000 100.0000 58.28580 55.96601 101.1694
171 100.0000 75.00000 100.0000 77.34742 66.00736 101.8781
172 0.000000 100.0000 100.0000 54.04826 78.60686 105.6550
173 25.00000 100.0000 100.0000 56.19341 79.77720 106.3019
174 50.00000 100.0000 100.0000 63.32627 83.51358 106.3985
175 100.0000 100.0000 100.0000 94.66388 100.0029 107.6169
END_DATA
